File: nzvi-2.2_XRD.csv
0.2711;-53
2.1916;490
3.1631;385
4.7899;334
5.8066;228
7.1396;231
8.8568;235
10.4157;76
12.2458;188
14.0533;192
15.5445;195
17.1261;145
18.7754;41
20.3344;98
21.916;209
23.859;159
25.192;324
26.8414;166
29.146;225
30.5468;282
32.7836;179
34.817;237
36.3534;186
37.9801;190
39.4713;193
41.0755;197
42.7022;200
44.3516;204
46.2494;262
48.4636;374
49.8644;755
51.9657;274
53.9539;224
55.9196;229
57.4108;232
59.1957;344
60.0408;0.039
60.1186;0.093
60.1965;0.002
60.2744;0.025
60.3523;0.028
60.4302;0.22
60.5081;0.085
60.5859;0.017
60.6638;0.452
60.7417;1.75
60.8196;0.826
60.8975;0.464
60.9753;0.125
61.0532;0.173
61.1311;0.203
61.209;1.15
61.2869;0.823
61.3647;0.09
61.4426;-0.009
61.5205;0.031
61.5984;0.07
61.6763;0.151
61.7541;-0.15
61.832;0.102
61.9099;0.462
61.9878;0.019
62.0657;0.111
62.1436;-0.192
62.2214;0.056
62.2993;-0.004
62.3772;0.306
62.4551;0.306
62.533;0.151
62.6108;0.043
62.6887;0.226
62.7666;0.27
62.8445;0.022
62.9224;0.422
63.0002;0.485
63.0781;2.285
63.156;0.662
63.2339;0.151
63.3118;0.042
63.3896;0.159
63.4675;0.197
63.5454;0.457
63.6233;0.265
63.7012;-0.097
63.7791;0.027
63.8569;0.038
63.9348;0.127
64.0127;0.21
64.0906;0.228
64.1685;0.014
64.2463;0.096
64.3242;0.086
64.4021;-0.076
64.48;0.077
64.5579;0.693
64.6357;0.121
64.7136;0.282
64.7915;0.003
64.8694;-0.062
64.9473;-0.089
65.0251;0.306
65.103;0.183
65.1809;-0.073
65.2588;0.218
65.3367;0.067
65.4145;0.038
65.4924;-0.022
65.5703;0.345
65.6482;0.159
65.7261;-0.019
65.804;0.225
65.8818;0.427
65.9597;0.346
66.0376;0.509
66.1155;0.207
66.1934;0.178
66.2712;0.262
66.3491;0.084
66.427;0.113
66.5049;0.167
66.5828;0.204
66.6606;0.137
66.7385;0.222
66.8164;0.094
66.8943;-0.049
66.9722;0.318
67.05;0.006
67.1279;0.469
67.2058;0.297
67.2837;0.405
67.3616;3.228
67.4395;6.269
67.5173;0.806
67.5952;0.19
67.6731;-0.031
67.751;0.212
67.8289;0.137
67.9067;-0.053
67.9846;0.025
68.0625;-0.079
68.1404;0.237
68.2183;1.074
68.2961;0.469
68.374;0.046
68.4519;0.132
68.5298;0.148
68.6077;0.158
68.6855;0.149
68.7634;0.06
68.8413;-0.05
68.9192;0.249
68.9971;-0.13
69.075;0.04
69.1528;0.306
69.2307;0.106
69.3086;0.142
69.3865;0.079
69.4644;-0.084
69.5422;0.078
69.6201;0.818
69.698;0.37
69.7759;0.249
69.8538;0.304
69.9316;-0.009
70.0095;0.13
70.0874;0.207
70.1653;0.085
70.2432;0.066
70.321;0.162
70.3989;0.175
70.4768;0.146
70.5547;0.146
70.6326;0.222
70.7105;0.242
70.7883;0.246
70.8662;0.184
70.9441;-0.068
71.022;0.204
71.0999;0.119
71.1777;0.304
71.2556;0.472
71.3335;0.19
71.4114;-0.002
71.4893;0.018
71.5671;0.187
71.645;-0.027
71.7229;0.064
71.8008;0.348
71.8787;0.17
71.9565;0.14
72.0344;0.085
72.1123;0.063
72.1902;0.373
72.2681;-0.046
72.3459;0.16
72.4238;-0.051
72.5017;0.17
72.5796;0.057
72.6575;0.272
72.7354;0.242
72.8132;0.143
72.8911;0.198
72.969;0.167
73.0469;0.371
73.1248;0.252
73.2026;0.244
73.2805;0.123
73.3584;-0.001
73.4363;0.239
73.5142;0.13
73.592;0.053
73.6699;-0.236
73.7478;0.019
73.8257;0.207
73.9036;0.18
73.9814;0.03
74.0593;-0.052
74.1372;0.292
74.2151;-0.006
74.293;-0.068
74.3709;0.008
74.4487;0.058
74.5266;0.269
74.6045;0.216
74.6824;0.013
74.7603;0.132
74.8381;0.046
74.916;0.238
74.9939;0.173
75.0718;0.163
75.1497;0.309
75.2275;0.14
75.3054;0.012
75.3833;-0.136
75.4612;0.301
75.5391;0.319
75.6169;-0.021
75.6948;0.078
75.7727;0.001
75.8506;0.11
75.9285;0.12
76.0064;0.079
76.0842;0.052
76.1621;0.122
76.24;0.117
76.3179;0.013
76.3958;0.264
76.4736;0.034
76.5515;-0.039
76.6294;0.302
76.7073;0.563
76.7852;0.335
76.863;0.189
76.9409;0.207
77.0188;0.279
77.0967;-0.249
77.1746;0.268
77.2524;0.066
77.3303;0.237
77.4082;0.048
77.4861;0.275
77.564;0.431
77.6419;-0.072
77.7197;0.065
77.7976;0.212
77.8755;0.125
77.9534;0.189
78.0313;0.367
78.1091;0.182
78.187;0.237
78.2649;-0.079
78.3428;0.241
78.4207;0.037
78.4985;0.247
78.5764;0.036
78.6543;0.097
78.7322;0.268
78.8101;0.058
78.8879;0.124
78.9658;0.046
79.0437;0.096
79.1216;0.309
79.1995;0.184
79.2773;0.165
79.3552;-0.009
79.4331;0.157
79.511;0.151
79.5889;-0.016
79.6668;0.074
79.7446;0.205
79.8225;0.141
79.9004;0.029
79.9783;-0.083
79.992;0