File: nZVI-1_XRD.csv
1.0081;143
2.3143;364
2.4667;365
2.5756;366
2.6844;420
2.7278;582
2.7717;259
2.8369;367
2.9893;367
3.5336;370
3.8168;317
4.078;318
4.2086;373
4.3394;266
4.9707;376
5.428;324
5.5803;433
5.6459;217
5.7765;218
5.9506;273
6.125;112
6.1903;166
6.2989;328
6.5167;275
6.6693;114
7.2136;170
7.3225;117
7.5402;172
8.1569;121
8.3461;-40
8.5854;123
8.6945;-39
8.912;124
9.0208;178
9.2387;72
9.4564;126
9.7395;20
9.8919;74
10.0225;75
10.1749;129
10.9805;133
11.0893;187
11.3725;81
11.6773;136
12.3303;246
12.5918;86
12.7878;87
12.962;88
13.1579;89
13.5281;36
13.7241;37
13.9201;-16
14.0289;92
14.116;93
14.399;94
14.5079;94
14.6386;41
14.7909;149
14.9216;96
15.161;151
15.4005;152
15.5748;99
15.6402;45
15.749;1.00E+02
15.9015;47
16.2498;102
16.4457;157
16.5983;-4
16.9029;159
17.2079;52
17.5562;108
17.7305;0.7
18.1223;110
18.5795;166
18.7973;59
18.906;221
19.298;169
19.3416;115
19.5811;116
19.9512;172
20.0601;119
21.1705;231
21.5189;179
21.6278;125
21.7803;72
22.2376;74
22.6294;184
22.7599;238
22.956;131
23.1519;186
23.3262;79
23.5873;242
23.6745;188
23.805;296
23.9141;135
24.1317;190
24.3279;29
24.4583;191
24.6762;85
24.7631;247
24.981;86
25.0679;248
25.4383;88
26.0043;198
26.2437;307
26.4397;254
26.8752;202
27.1366;149
27.3761;150
27.7246;44
27.8986;153
28.0946;153
28.2687;208
28.3776;209
28.4425;532
28.5286;1394
28.5949;533
28.6172;156
28.7261;102
28.8786;49
29.205;158
29.4446;159
29.7712;107
30.0543;54
30.3808;217
30.5548;326
31.0558;166
31.6219;169
31.905;170
32.188;225
32.4058;172
32.8195;174
33.0154;229
33.2766;230
33.5161;285
33.6469;178
33.8428;178
34.1258;234
34.213;126
34.7138;182
35.1928;184
35.4323;132
35.7154;133
36.0204;-27
36.1511;-27
36.2598;81
36.4775;136
36.7387;191
37.0218;138
37.2613;193
37.3701;194
37.5443;248
37.958;196
38.3063;252
38.6331;145
38.9161;200
39.1554;309
39.4168;203
39.8523;205
40.1137;152
40.2877;260
40.5709;154
40.7233;154
40.9411;155
41.115;372
41.1805;210
41.5071;212
41.7901;267
41.9861;268
42.2474;269
42.5086;270
42.7264;217
42.9659;218
43.5103;220
43.8151;222
44.0763;331
44.5119;225
44.7731;226
45.1216;120
45.3826;390
45.4919;68
45.5788;176
45.6877;176
46.1886;71
46.2974;125
46.5151;180
46.711;234
46.8197;396
47.0593;290
47.2117;344
47.3857;507
47.4728;507
47.6466;831
47.7554;885
47.776;1854
47.8041;15315
47.8103;9931
47.8269;33299
47.8414;20700
47.8633;1693
47.8891;17146
47.8953;11762
47.9274;2770
47.9432;7939
47.945;6378
47.9481;3686
47.9506;1532
47.9953;563
48.0384;940
48.1044;348
48.3002;510
48.4309;403
48.5833;458
48.823;244
48.9535;406
49.3455;353
49.5414;408
49.7158;194
49.9115;464
50.0858;303
50.5864;467
50.8044;252
51.1745;308
51.5229;309
51.7625;256
52.1108;258
52.4376;152
52.6769;314
53.0907;208
53.2212;316
53.3301;317
53.6566;426
53.7875;211
53.9833;320
54.114;267
54.3535;268
54.5057;430
54.6148;269
54.8542;377
54.9414;270
55.1809;271
55.4857;326
55.6383;165
55.9866;221
56.139;275
56.7703;386
57.0753;226
57.2276;280
57.4453;335
57.6415;174
57.8156;229
58.055;284
58.3381;285
58.6864;340
58.9694;395
59.3178;343
59.4052;128
59.4703;290