File: nzvi-2(corregido)_XRD.csv
10;-54
10.7972;218
10.9422;272
11.1234;273
11.3769;220
11.5763;382
11.667;490
11.8118;275
11.9024;383
12.1198;437
12.2467;492
12.3372;384
12.4821;438
12.6995;385
12.8808;547
13.1524;332
13.3336;387
13.714;388
13.8951;334
14.022;389
14.2031;335
14.3118;335
14.4748;282
14.5654;228
14.6741;228
14.8734;337
15.0907;230
15.2357;284
15.4349;230
15.7429;231
16.0146;178
16.2682;179
16.4313;287
16.5943;234
16.8841;126
17.1921;127
17.4819;74
17.5726;182
17.6994;129
17.9892;129
18.2609;76
18.5146;131
18.6957;131
18.9675;186
19.2392;133
19.5472;242
19.837;134
20.0544;135
20.3987;190
20.7247;83
20.8878;191
21.0689;138
21.232;138
21.5581;193
21.6849;139
21.8479;194
22.0472;140
22.2283;141
22.5183;250
22.7356;196
23.0073;143
23.2429;198
23.4602;144
23.6414;145
23.8769;145
24.1124;146
24.4023;147
24.5835;201
24.7646;148
25.1268;41
25.3443;149
25.6341;150
25.8334;151
25.9602;151
26.1052;205
26.2682;152
26.5037;152
26.6668;261
26.9567;262
27.174;208
27.4095;209
27.7356;210
27.9349;264
28.1704;157
28.4784;158
28.7864;213
29.04;159
29.1124;159
29.2936;160
29.511;161
29.7646;215
29.9277;270
30.1813;270
30.3987;217
30.6342;218
30.8515;164
31.1052;219
31.3588;219
31.6306;220
31.9748;221
32.319;222
32.627;385
32.935;278
33.2791;225
33.4964;117
33.6055;657
33.6601;1143
33.7321;388
33.9857;281
34.2574;173
34.6016;174
35.0907;176
35.3262;122
35.6522;123
35.9059;232
36.1958;179
36.4856;233
36.7755;180
37.011;181
37.4095;182
37.7175;237
37.8987;237
38.1704;238
38.4421;77
38.6958;185
38.8407;132
39.0037;186
39.1668;187
39.4385;79
39.6197;188
39.8371;296
40.0364;243
40.3624;190
40.5798;190
40.7067;245
40.9602;137
41.1053;354
41.4312;139
41.6486;139
41.8842;194
42.1197;195
42.2827;195
42.4277;249
42.79;196
43.0436;143
43.3516;198
43.5327;198
43.7682;145
43.9132;199
44.1487;200
44.3299;254
44.511;255
44.7284;256
44.9095;94
45.3081;203
45.5617;258
45.8697;205
46.1415;313
46.3588;206
46.5219;260
46.8299;261
47.2284;262
47.4277;209
47.79;210
48.243;427
48.4241;373
48.7683;374
49.0582;321
49.3301;592
49.6019;700
49.6946;4316
49.7177;12463
49.7484;33399
49.8203;2374
50.0546;486
50.5074;325
50.8517;380
51.1415;273
51.3589;381
51.5763;274
51.8298;167
52.2283;114
52.4638;115
52.7175;169
53.0255;224
53.2429;279
53.569;225
53.7501;226
54.0582;335
54.3299;335
54.6741;282
54.8915;337
55.1813;284
55.3263;284
55.4531;284
55.7066;177
55.9422;232
56.1234;286
56.3226;233
56.6487;288
56.8481;396
57.156;343
57.3734;344
57.5908;290
57.79;237
58.0255;184
58.2429;184
58.4965;239
58.7321;293
58.8226;294
59.0038;294
59.1487;241
59.3117;241
59.4929;295